 Quantities needed for Eq. (17) of photo_residue_V02.pdf
 (Contribution from the Non-pole part)                  
 =======================================================
 
 Pole position         [MeV]:     1641.13       -133.967    
 On-shell Residue [MeV^(-1)] (piN, etaN, piD(1), piD(2) --> piN): 
   0.328184E-04   0.278786E-04    0.00000        0.00000      -0.107324E-04  -0.182512E-04  -0.128383E-03  -0.100539E-03
 Coupling constants x 1000 (you dont need them):
    6.15953        2.26305        0.00000        0.00000       -2.49435       -2.04664       -23.6479       -7.63418    
 Off->on-shell Residues [MeV^(-1)] (piN, etaN, piD(1), piD(2) --> piN_on): 
 (This is also written to separate files to make readout easier)
 Order: Re, Im xgaus [MeV]; Re, Im wgaus; 3 x Re, Im Residues
    4.95434      -0.218806        12.6251      -0.557583      -0.101813E-08  -0.600023E-08    0.00000        0.00000      -0.501698E-09   0.293829E-08   0.480571E-08   0.225826E-07
    25.3451       -1.11935        27.7060       -1.22362      -0.241486E-07  -0.176300E-06    0.00000        0.00000      -0.173956E-07   0.854014E-07   0.119215E-06   0.664263E-06
    59.1997       -2.61453        39.3288       -1.73694      -0.105076E-06  -0.147015E-05    0.00000        0.00000      -0.189268E-06   0.696699E-06   0.626500E-06   0.555088E-05
    102.581       -4.53044        46.7181       -2.06328      -0.948183E-06  -0.920493E-05    0.00000        0.00000      -0.104831E-05   0.441021E-05   0.500685E-05   0.346975E-04
    151.271       -6.68081        50.0310       -2.20959      -0.371119E-04  -0.654067E-04    0.00000        0.00000       0.660009E-05   0.362380E-04   0.150500E-03   0.241882E-03
    201.517       -8.89989        49.9714       -2.20696      -0.658994E-04  -0.359438E-04    0.00000        0.00000       0.259149E-04   0.286314E-04   0.254748E-03   0.125207E-03
    250.386       -11.0582        47.4280       -2.09463      -0.837095E-04   0.136203E-03    0.00000        0.00000       0.606315E-04  -0.496156E-04   0.296035E-03  -0.528242E-03
    295.830       -13.0652        43.2520       -1.91020      -0.746163E-04   0.359516E-04    0.00000        0.00000       0.402634E-04  -0.464122E-05   0.276973E-03  -0.147459E-03
    336.589       -14.8653        38.1680       -1.68567      -0.272601E-04   0.155398E-04    0.00000        0.00000       0.150337E-04  -0.283113E-05   0.100876E-03  -0.629672E-04
    372.062       -16.4319        32.7668       -1.44713      -0.599314E-05   0.213213E-04    0.00000        0.00000       0.611751E-05  -0.897324E-05   0.195019E-04  -0.815960E-04
    402.180       -17.7621        27.5334       -1.21600       0.373152E-05   0.263534E-04    0.00000        0.00000       0.245022E-05  -0.128770E-04  -0.180742E-04  -0.991636E-04
    427.323       -18.8725        22.8840       -1.01066       0.943181E-05   0.296712E-04    0.00000        0.00000       0.356492E-06  -0.153275E-04  -0.401527E-04  -0.110856E-03
    448.269       -19.7976        19.1976      -0.847853       0.132953E-04   0.319179E-04    0.00000        0.00000      -0.106508E-05  -0.169863E-04  -0.551155E-04  -0.118774E-03
    466.161       -20.5878        16.8377      -0.743630       0.161895E-04   0.335407E-04    0.00000        0.00000      -0.214057E-05  -0.182009E-04  -0.663146E-04  -0.124477E-03
    482.505       -21.3096        16.1605      -0.713720       0.185974E-04   0.348274E-04    0.00000        0.00000      -0.304597E-05  -0.191819E-04  -0.756218E-04  -0.128982E-03
    499.158       -22.0451        17.5099      -0.773316       0.208711E-04   0.359758E-04    0.00000        0.00000      -0.391192E-05  -0.200775E-04  -0.844002E-04  -0.132983E-03
    518.307       -22.8908        21.2029      -0.936416       0.233054E-04   0.371198E-04    0.00000        0.00000      -0.485301E-05  -0.209967E-04  -0.937853E-04  -0.136943E-03
    542.437       -23.9565        27.5149       -1.21518       0.261450E-04   0.383221E-04    0.00000        0.00000      -0.597229E-05  -0.220078E-04  -0.104713E-03  -0.141061E-03
    574.290       -25.3632        36.6871       -1.62027       0.295545E-04   0.395458E-04    0.00000        0.00000      -0.735184E-05  -0.231199E-04  -0.117800E-03  -0.145173E-03
    616.853       -27.2430        48.9896       -2.16360       0.335630E-04   0.406240E-04    0.00000        0.00000      -0.903189E-05  -0.242605E-04  -0.133131E-03  -0.148643E-03
    673.461       -29.7431        64.8835       -2.86555       0.379956E-04   0.412334E-04    0.00000        0.00000      -0.109835E-04  -0.252513E-04  -0.149994E-03  -0.150271E-03
    748.128       -33.0407        85.3371       -3.76887       0.423726E-04   0.408685E-04    0.00000        0.00000      -0.130657E-04  -0.257814E-04  -0.166499E-03  -0.148220E-03
    846.312       -37.3770        112.388       -4.96358       0.457776E-04   0.388766E-04    0.00000        0.00000      -0.149594E-04  -0.254008E-04  -0.179078E-03  -0.140158E-03
    976.439       -43.1239        150.171       -6.63221       0.468107E-04   0.346391E-04    0.00000        0.00000      -0.161158E-04  -0.235981E-04  -0.182342E-03  -0.123959E-03
    1152.91       -50.9175        206.983       -9.14129       0.438732E-04   0.279338E-04    0.00000        0.00000      -0.158307E-04  -0.200135E-04  -0.170211E-03  -0.990270E-04
    1402.27       -61.9308        300.038       -13.2510       0.360148E-04   0.193971E-04    0.00000        0.00000      -0.135619E-04  -0.147893E-04  -0.139185E-03  -0.679163E-04
    1777.34       -78.4955        467.853       -20.6625       0.242603E-04   0.108059E-04    0.00000        0.00000      -0.949842E-05  -0.891404E-05  -0.934142E-04  -0.371949E-04
    2393.56       -105.711        807.668       -35.6703       0.123323E-04   0.446943E-05    0.00000        0.00000      -0.499276E-05  -0.405672E-05  -0.473296E-04  -0.150336E-04
    3540.86       -156.380        1612.73       -71.2252       0.442504E-05   0.135896E-05    0.00000        0.00000      -0.183080E-05  -0.134214E-05  -0.169453E-04  -0.446782E-05
    6122.39       -270.392        4043.97       -178.600       0.109319E-05   0.318237E-06    0.00000        0.00000      -0.455101E-06  -0.323458E-06  -0.418357E-05  -0.103748E-05
    14237.2       -628.781        15499.2       -684.516       0.139056E-06   0.400448E-07    0.00000        0.00000      -0.579599E-07  -0.409422E-07  -0.532089E-06  -0.130314E-06
    72565.8       -3204.83        184737.       -8158.83       0.241681E-08   0.697209E-09    0.00000        0.00000      -0.100715E-08  -0.712144E-09  -0.924792E-08  -0.226944E-08
 Next, we write the value of delta G from Eq. (15) from photo_residue_V02.pdf
 at the pole position in the lower half plane zo.
 They are given regardless if the resonance couples to the
 corresponding channels; if not, set delta G to zero!
 Also, set them to zero if Re(z_0)<threshold of a channel!
dG_piN (z_0) :    -360116.      -0.123620E+07
dG_etaN(z_0) :    -444199.       -853457.    
dG_piD (z_0) :    -259829.       -367179.    
 
 Quantities needed for Eqs. (19,21)                     
 (Contribution from the Pole part)                      
 =======================================================
 
 A=A_1 [Eq. (19), 1 Reson.] and A_2 [Eq. (21), 2 Reson.]
         A_1 =    0.530168E-02  -0.219217E-02
         A_2 =     0.00000        0.00000    
 These values can be tested: Multiplied with Gamma^c,   
 they must give the hadronic on-shell residues quoted   
 above. The relative deviations in % are                
 (order: see above; a NAN means the residues is zero):  
   0.731965E-01            NaN   0.228358       0.469227E-01
 Error may become large in some occasions if residue      
 itself is tiny. For larger residues, error is always tiny.
