 Quantities needed for Eq. (17) of photo_residue_V02.pdf
 (Contribution from the Non-pole part)                  
 =======================================================
 
 Pole position         [MeV]:     1742.16       -158.243    
 On-shell Residue [MeV^(-1)] (piN, etaN, piD(1), piD(2) --> piN): 
  -0.105812E-04  -0.810485E-06  -0.554157E-06  -0.825667E-06  -0.237584E-04  -0.482282E-04    0.00000        0.00000    
 Coupling constants x 1000 (you dont need them):
   0.124488       -3.25526       0.246770      -0.179671        14.5151       -7.85355        0.00000        0.00000    
 Off->on-shell Residues [MeV^(-1)] (piN, etaN, piD(1), piD(2) --> piN_on): 
 (This is also written to separate files to make readout easier)
 Order: Re, Im xgaus [MeV]; Re, Im wgaus; 3 x Re, Im Residues
    5.88534      -0.107917        14.9976      -0.275006      -0.975549E-06  -0.331214E-06   0.184814E-06  -0.771121E-07  -0.425013E-05  -0.455053E-05    0.00000        0.00000    
    30.1078      -0.552076        32.9124      -0.603503       0.343739E-06  -0.397032E-05   0.946262E-06  -0.517446E-06  -0.230822E-04  -0.118207E-04    0.00000        0.00000    
    70.3243       -1.28951        46.7193      -0.856676       0.160995E-04  -0.616808E-05   0.192455E-05  -0.150692E-05  -0.335879E-04  -0.615141E-06    0.00000        0.00000    
    121.858       -2.23446        55.4971       -1.01763       0.592461E-04  -0.250731E-04   0.293169E-05  -0.327938E-05  -0.399394E-04  -0.168612E-04    0.00000        0.00000    
    179.697       -3.29505        59.4326       -1.08979      -0.235238E-04  -0.771102E-04  -0.497168E-06  -0.481518E-05  -0.107650E-03   0.157983E-05    0.00000        0.00000    
    239.385       -4.38952        59.3618       -1.08850       0.161816E-04   0.235937E-04  -0.844838E-06   0.252856E-06  -0.148210E-03   0.456433E-04    0.00000        0.00000    
    297.438       -5.45402        56.3405       -1.03309       0.183439E-04  -0.687164E-04   0.641174E-06   0.180957E-05  -0.492109E-04   0.652285E-04    0.00000        0.00000    
    351.421       -6.44389        51.3798      -0.942132       0.446880E-04  -0.840741E-05   0.179627E-06   0.108763E-05  -0.837065E-04   0.391682E-04    0.00000        0.00000    
    399.840       -7.33172        45.3404      -0.831392       0.308178E-05  -0.124894E-04   0.828548E-07   0.328595E-07  -0.120084E-03  -0.346517E-04    0.00000        0.00000    
    441.978       -8.10439        38.9242      -0.713740      -0.681593E-05  -0.573602E-05   0.740808E-07  -0.276800E-06  -0.635395E-04  -0.746910E-04    0.00000        0.00000    
    477.756       -8.76044        32.7074      -0.599744      -0.878688E-05  -0.130296E-05   0.668552E-07  -0.497292E-06  -0.380415E-04  -0.610780E-04    0.00000        0.00000    
    507.625       -9.30813        27.1843      -0.498468      -0.897265E-05   0.764843E-06   0.274536E-07  -0.669698E-06  -0.319886E-04  -0.527268E-04    0.00000        0.00000    
    532.506       -9.76437        22.8052      -0.418170      -0.871227E-05   0.154874E-05  -0.270264E-07  -0.801905E-06  -0.295616E-04  -0.489896E-04    0.00000        0.00000    
    553.760       -10.1541        20.0018      -0.366766      -0.836293E-05   0.172128E-05  -0.888650E-07  -0.903298E-06  -0.280986E-04  -0.470698E-04    0.00000        0.00000    
    573.176       -10.5101        19.1973      -0.352014      -0.801491E-05   0.159831E-05  -0.156580E-06  -0.982996E-06  -0.270370E-04  -0.459399E-04    0.00000        0.00000    
    592.958       -10.8729        20.8003      -0.381408      -0.767698E-05   0.129546E-05  -0.233203E-06  -0.104796E-05  -0.261692E-04  -0.451863E-04    0.00000        0.00000    
    615.705       -11.2900        25.1873      -0.461850      -0.733623E-05   0.837290E-06  -0.323743E-06  -0.110041E-05  -0.254099E-04  -0.446027E-04    0.00000        0.00000    
    644.370       -11.8156        32.6854      -0.599340      -0.697117E-05   0.231956E-06  -0.429862E-06  -0.113638E-05  -0.247373E-04  -0.440085E-04    0.00000        0.00000    
    682.208       -12.5094        43.5812      -0.799133      -0.653798E-05  -0.479194E-06  -0.544754E-06  -0.114854E-05  -0.241045E-04  -0.431358E-04    0.00000        0.00000    
    732.769       -13.4365        58.1956       -1.06711      -0.597315E-05  -0.121391E-05  -0.653705E-06  -0.112978E-05  -0.233616E-04  -0.416405E-04    0.00000        0.00000    
    800.015       -14.6696        77.0762       -1.41332      -0.524408E-05  -0.186313E-05  -0.736792E-06  -0.107251E-05  -0.223040E-04  -0.391845E-04    0.00000        0.00000    
    888.714       -16.2960        101.373       -1.85885      -0.439158E-05  -0.230659E-05  -0.770549E-06  -0.970333E-06  -0.207313E-04  -0.354888E-04    0.00000        0.00000    
    1005.35       -18.4347        133.508       -2.44809      -0.351192E-05  -0.244056E-05  -0.735886E-06  -0.825326E-06  -0.184150E-04  -0.304185E-04    0.00000        0.00000    
    1159.93       -21.2692        178.390       -3.27108      -0.269523E-05  -0.221019E-05  -0.631663E-06  -0.651962E-06  -0.151136E-04  -0.241229E-04    0.00000        0.00000    
    1369.56       -25.1131        245.878       -4.50858      -0.196836E-05  -0.164561E-05  -0.480712E-06  -0.471930E-06  -0.107923E-04  -0.171510E-04    0.00000        0.00000    
    1665.78       -30.5449        356.421       -6.53556      -0.130035E-05  -0.907636E-06  -0.319211E-06  -0.305872E-06  -0.600418E-05  -0.104300E-04    0.00000        0.00000    
    2111.34       -38.7148        555.770       -10.1910      -0.691145E-06  -0.275324E-06  -0.178997E-06  -0.170262E-06  -0.202978E-05  -0.501116E-05    0.00000        0.00000    
    2843.35       -52.1376        959.442       -17.5929      -0.238195E-06   0.250280E-07  -0.792958E-07  -0.765923E-07  -0.638984E-07  -0.164594E-05    0.00000        0.00000    
    4206.24       -77.1283        1915.78       -35.1290      -0.329098E-07   0.473712E-07  -0.246725E-07  -0.256011E-07   0.212382E-06  -0.305246E-06    0.00000        0.00000    
    7272.88       -133.360        4803.90       -88.0873       0.305134E-08   0.146472E-07  -0.435869E-08  -0.547650E-08   0.779834E-07  -0.443972E-07    0.00000        0.00000    
    16912.6       -310.121        18411.8       -337.610       0.126506E-08   0.205665E-08  -0.276507E-09  -0.544342E-09   0.978292E-08  -0.884563E-08    0.00000        0.00000    
    86202.1       -1580.66        219453.       -4024.02       0.336067E-10   0.373358E-10  -0.201442E-11  -0.814701E-11   0.117841E-09  -0.204348E-09    0.00000        0.00000    
 Next, we write the value of delta G from Eq. (15) from photo_residue_V02.pdf
 at the pole position in the lower half plane zo.
 They are given regardless if the resonance couples to the
 corresponding channels; if not, set delta G to zero!
 Also, set them to zero if Re(z_0)<threshold of a channel!
dG_piN (z_0) :    -450064.      -0.151506E+07
dG_etaN(z_0) :    -508896.      -0.117058E+07
dG_piD (z_0) :    -361509.       -571565.    
 
 Quantities needed for Eqs. (19,21)                     
 (Contribution from the Pole part)                      
 =======================================================
 
 A=A_1 [Eq. (19), 1 Reson.] and A_2 [Eq. (21), 2 Reson.]
         A_1 =   -0.368964E-05   0.101396E-04
         A_2 =    0.371034E-04   0.124079E-04
 These values can be tested: Multiplied with Gamma^c,   
 they must give the hadronic on-shell residues quoted   
 above. The relative deviations in % are                
 (order: see above; a NAN means the residues is zero):  
    3227.55        7.86119        13539.1                NaN
 Error may become large in some occasions if residue      
 itself is tiny. For larger residues, error is always tiny.
